File: data/galukhin2019lang/DBdB-sphere-ads-sample1.csv
p/p0,relative_adsorption
3.0249e-21,0.00854696
0.166126,0.0310777
0.624142,0.0532645
0.810267,0.07511
0.884401,0.0966168
0.918808,0.117788
0.93687,0.138625
0.94725,0.159132
0.953624,0.17931
0.957736,0.199164
0.960487,0.218694
0.962374,0.237904
0.963691,0.256797
0.964617,0.275375
0.965267,0.293641
0.965716,0.311597
0.966016,0.329246
0.966203,0.346591
0.966302,0.363635
0.966331,0.380379
0.966331,0.380379
0.966331,0.473155
0.966331,0.556175
0.966331,0.62998
0.966331,0.695113
0.966331,0.752115
0.966331,0.80153
0.966331,0.843898
0.966331,0.879762
0.966331,0.909663
0.966331,0.934144
0.966331,0.953747
0.966331,0.969014
0.966331,0.980487
0.966331,0.988708
0.966331,0.994218
0.966331,0.997561
0.966331,0.999277
0.966331,0.99991
0.966331,1.0
0.966331,1.0
0.970072,1.0
0.973813,1.0
0.977554,1.0
0.981295,1.0
0.985036,1.0
0.988777,1.0
0.992518,1.0
0.996259,1.0
1.0,1.0