File: data/galukhin2019lang/DBdB-sphere-ads-sample2.csv
p/p0,relative_adsorption
3.00774e-21,0.0103092
0.109087,0.0344684
0.548369,0.0582313
0.763019,0.081601
0.853959,0.104581
0.897327,0.127174
0.920428,0.149384
0.933821,0.171214
0.942095,0.192668
0.947455,0.213747
0.951052,0.234457
0.953527,0.2548
0.955257,0.274779
0.956476,0.294398
0.957332,0.31366
0.957925,0.332568
0.958322,0.351125
0.958569,0.369336
0.958701,0.387202
0.95874,0.404728
0.95874,0.404728
0.95874,0.493858
0.95874,0.573615
0.95874,0.64452
0.95874,0.707094
0.95874,0.761856
0.95874,0.809329
0.95874,0.850032
0.95874,0.884486
0.95874,0.913213
0.95874,0.936732
0.95874,0.955565
0.95874,0.970232
0.95874,0.981254
0.95874,0.989152
0.95874,0.994446
0.95874,0.997657
0.95874,0.999306
0.95874,0.999913
0.95874,1.0
0.95874,1.0
0.963325,1.0
0.967909,1.0
0.972494,1.0
0.977078,1.0
0.981662,1.0
0.986247,1.0
0.990831,1.0
0.995416,1.0
1.0,1.0